## http://sheat.phys.tohoku.ac.jp/~tmatsu/demae/demae.shtml
## Temp(K), rho(Ohm*cm), I+(mA), I-(mA), V+(mV), V-(mV), R(Ohm), errR(Ohm), Rprobe(Ohm)
78.35, 8.4988E-7, 1.9989E+0, -1.9987E+0, -3.00004E-3, -3.02083E-3, 5.2003E-6, 1.4030E-6, -2.0839E+36
78.31, -4.7321E-6, 1.9989E+0, -1.9987E+0, -2.68194E-3, -2.56619E-3, -2.8955E-5, 4.0052E-6, -2.0665E+36
86.32, -2.4543E-6, 1.9989E+0, -1.9987E+0, -3.65151E-3, -3.59147E-3, -1.5018E-5, 8.5440E-6, -2.1166E+36
87.32, 8.7469E-6, 1.9989E+0, -1.9987E+0, -3.32761E-3, -3.54157E-3, 5.3521E-5, 1.8728E-6, -2.0531E+36
90.91, 1.1971E-5, 1.9989E+0, -1.9987E+0, -3.73067E-3, -4.02349E-3, 7.3249E-5, 9.3120E-7, -1.9934E+36
89.32, 1.2290E-5, 1.9989E+0, -1.9987E+0, -4.19682E-3, -4.49744E-3, 7.5200E-5, 3.6934E-6, -2.0367E+36
90.03, 1.5006E-5, 1.9989E+0, -1.9987E+0, -3.65441E-3, -4.02146E-3, 9.1817E-5, 1.2646E-6, -1.9251E+36
91.04, -9.4812E-6, 1.9989E+0, -1.9987E+0, -3.61564E-3, -3.38372E-3, -5.8014E-5, 2.1003E-5, -2.0742E+36
89.76, 1.2979E-5, 1.9989E+0, -1.9987E+0, -3.26653E-3, -3.58400E-3, 7.9414E-5, 4.4758E-6, -1.9895E+36
91.65, 2.0989E-5, 1.9989E+0, -1.9987E+0, -3.15513E-3, -3.66854E-3, 1.2843E-4, 1.3700E-5, -1.9048E+36
92.33, 4.9946E-5, 1.9989E+0, -1.9987E+0, -3.10190E-3, -4.32364E-3, 3.0561E-4, 8.5386E-7, -2.0001E+36
92.75, 6.8950E-5, 1.9989E+0, -1.9987E+0, -2.97513E-3, -4.66172E-3, 4.2190E-4, 3.8610E-6, -1.9636E+36
93.37, 2.2276E-4, 1.9989E+0, -1.9988E+0, -1.13484E-3, -6.58373E-3, 1.3630E-3, 5.0790E-7, -1.8846E+36
94.18, 2.3378E-4, 1.9989E+0, -1.9988E+0, -5.90276E-4, -6.30890E-3, 1.4305E-3, 1.5380E-6, -1.8971E+36
94.48, 2.3744E-4, 1.9989E+0, -1.9988E+0, 5.65277E-4, -5.24287E-3, 1.4529E-3, 1.9513E-6, -1.9087E+36
94.62, 2.0868E-4, 1.9989E+0, -1.9988E+0, 3.29340E-4, -4.77534E-3, 1.2769E-3, 9.9065E-6, -1.9270E+36
95.29, 2.4723E-4, 1.9989E+0, -1.9988E+0, 8.22104E-4, -5.22536E-3, 1.5128E-3, 1.8584E-5, -1.8298E+36
97.45, 2.5083E-4, 1.9989E+0, -1.9988E+0, 3.15718E-4, -5.82000E-3, 1.5348E-3, 1.6598E-6, -1.8856E+36
97.68, 2.4950E-4, 1.9989E+0, -1.9988E+0, 4.38839E-4, -5.66420E-3, 1.5267E-3, 6.2054E-7, -1.9385E+36
98.39, 2.4606E-4, 1.9989E+0, -1.9988E+0, 1.02077E-4, -5.91684E-3, 1.5056E-3, 3.2587E-6, -1.8192E+36
102.00, 2.6751E-4, 1.9989E+0, -1.9988E+0, 8.74538E-5, -6.45625E-3, 1.6369E-3, 1.4422E-6, -1.7701E+36
105.14, 2.8102E-4, 1.9989E+0, -1.9988E+0, 9.68370E-5, -6.77731E-3, 1.7195E-3, 7.7957E-6, -1.7239E+36
110.10, 3.0117E-4, 1.9989E+0, -1.9988E+0, 5.65670E-4, -6.80141E-3, 1.8428E-3, 1.1915E-5, -1.7499E+36
115.11, 3.2225E-4, 1.9989E+0, -1.9988E+0, 9.12772E-4, -6.96986E-3, 1.9718E-3, 3.2484E-6, -1.7470E+36
119.75, 3.4881E-4, 1.9989E+0, -1.9988E+0, 2.61654E-3, -5.91582E-3, 2.1343E-3, 2.0617E-5, -1.6584E+36
125.15, 3.6479E-4, 1.9989E+0, -1.9988E+0, 1.76919E-3, -7.15398E-3, 2.2321E-3, 9.3778E-7, -1.6690E+36
129.15, 3.7386E-4, 1.9989E+0, -1.9988E+0, 1.80181E-3, -7.34324E-3, 2.2876E-3, 1.8753E-6, -1.6565E+36
134.92, 4.0593E-4, 1.9989E+0, -1.9988E+0, 2.33490E-3, -7.59457E-3, 2.4838E-3, 1.2696E-6, -1.5217E+36
139.75, 4.1951E-4, 1.9989E+0, -1.9988E+0, 2.23826E-3, -8.02352E-3, 2.5669E-3, 6.2759E-7, -1.6122E+36
147.75, 4.5178E-4, 1.9989E+0, -1.9988E+0, 2.59347E-3, -8.45766E-3, 2.7644E-3, 4.1930E-6, -1.5323E+36
155.42, 4.7606E-4, 1.9989E+0, -1.9988E+0, 3.01220E-3, -8.63273E-3, 2.9129E-3, 2.7603E-6, -1.4881E+36
163.50, 5.0517E-4, 1.9989E+0, -1.9988E+0, 3.53376E-3, -8.82327E-3, 3.0911E-3, 7.3491E-7, -1.3889E+36
171.65, 5.3828E-4, 1.9989E+0, -1.9988E+0, 4.78093E-3, -8.38609E-3, 3.2937E-3, 3.7993E-6, -1.4659E+36
179.76, 5.6113E-4, 1.9989E+0, -1.9988E+0, 4.41246E-3, -9.31358E-3, 3.4335E-3, 1.1255E-6, -1.2821E+36
186.30, 5.8351E-4, 1.9989E+0, -1.9988E+0, 6.42218E-3, -7.85123E-3, 3.5704E-3, 3.9036E-7, -1.2012E+36
195.32, 6.0834E-4, 1.9989E+0, -1.9988E+0, 5.31360E-3, -9.56733E-3, 3.7224E-3, 1.0203E-6, -6.1504E+35
203.31, 6.2953E-4, 1.9989E+0, -1.9988E+0, 5.65524E-3, -9.74403E-3, 3.8520E-3, 1.7085E-6, -4.9666E+35
210.85, 6.4588E-4, 1.9989E+0, -1.9988E+0, 5.80046E-3, -9.99862E-3, 3.9521E-3, 2.1140E-6, -3.8404E+35
219.08, 6.7698E-4, 1.9989E+0, -1.9988E+0, 6.59176E-3, -9.96802E-3, 4.1423E-3, 2.8030E-6, -3.7634E+35
227.12, 6.9838E-4, 1.9989E+0, -1.9988E+0, 6.66789E-3, -1.04154E-2, 4.2733E-3, 8.8692E-6, -3.3399E+35
235.21, 7.1719E-4, 1.9989E+0, -1.9988E+0, 6.93940E-3, -1.06040E-2, 4.3884E-3, 7.9470E-7, -3.3495E+35
242.90, 7.3836E-4, 1.9989E+0, -1.9988E+0, 7.27420E-3, -1.07872E-2, 4.5180E-3, 1.2676E-6, -1.8384E+35
251.10, 7.5852E-4, 1.9989E+0, -1.9988E+0, 7.56648E-3, -1.09881E-2, 4.6413E-3, 1.1781E-6, -1.6459E+35
258.69, 7.7807E-4, 1.9988E+0, -1.9988E+0, 7.87015E-3, -1.11625E-2, 4.7609E-3, 7.3464E-7, -1.7325E+34
266.71, 7.9811E-4, 1.9988E+0, -1.9988E+0, 8.29933E-3, -1.12235E-2, 4.8835E-3, 1.3722E-6, 1.0203E+35
275.15, 8.3132E-4, 1.9988E+0, -1.9989E+0, 1.03827E-2, -9.95254E-3, 5.0867E-3, 1.3586E-5, 2.9741E+35
283.23, 8.7133E-4, 1.9988E+0, -1.9988E+0, 1.19352E-2, -9.37879E-3, 5.3316E-3, 1.2972E-5, 0.0000E+0
